PE UV       SUBTECH     SPECTRUM    ASCII       PEDS        4.00        	
-1	
KY200180810.Sample.Raw.asc	
10.9.2002	
13:58:42.00	
10.9.2002	
13:58:42.00	
Hermanni Kaartokallio	
	
200.000000	
1	
Lambda 650	
650N8121101	
PerkinElmer UV WinLab 6.0.2.0723 / 1.61.00 Lambda 650	
	
0	
0	
2	
0	
0	
UV/VIS	
1	
1	
1	
uv/vis/nir detector	
0	
0	
0	
0	
Fix	
 	
0	
0.24	
0	
0	
0	
 	
 	
 	
0	
 	
0	
319.2	
0	
Front	
100	
 	
 	
 	
0	
0	
0	
 	
0	
 	
 	
 	
0	
 	
 	
0	
0	
0	
0	
0	
 	
 	
 	
 	
0	
0	
#HDR	
-1	
-1	
#GR	
nm	
A	
1.0	
0.0	
800.000000	
-1.000000	
601	
8	
10.000000	
0.062522	
#DATA	
800.000000	0.087747
799.000000	0.088397
798.000000	0.088984
797.000000	0.089171
796.000000	0.089866
795.000000	0.090338
794.000000	0.090789
793.000000	0.091376
792.000000	0.092162
791.000000	0.092426
790.000000	0.093057
789.000000	0.093653
788.000000	0.094062
787.000000	0.094546
786.000000	0.095066
785.000000	0.095343
784.000000	0.096003
783.000000	0.096315
782.000000	0.096775
781.000000	0.097331
780.000000	0.097746
779.000000	0.097699
778.000000	0.098298
777.000000	0.098716
776.000000	0.099073
775.000000	0.099394
774.000000	0.099758
773.000000	0.099829
772.000000	0.100020
771.000000	0.100432
770.000000	0.100746
769.000000	0.100973
768.000000	0.101138
767.000000	0.101213
766.000000	0.101613
765.000000	0.101702
764.000000	0.101825
763.000000	0.102002
762.000000	0.102112
761.000000	0.101951
760.000000	0.102298
759.000000	0.102431
758.000000	0.102359
757.000000	0.102342
756.000000	0.102622
755.000000	0.102555
754.000000	0.102644
753.000000	0.102682
752.000000	0.102944
751.000000	0.103036
750.000000	0.102907
749.000000	0.102903
748.000000	0.103250
747.000000	0.103218
746.000000	0.103226
745.000000	0.103394
744.000000	0.103441
743.000000	0.103241
742.000000	0.103309
741.000000	0.103133
740.000000	0.102821
739.000000	0.102373
738.000000	0.101704
737.000000	0.100691
736.000000	0.099470
735.000000	0.097942
734.000000	0.096262
733.000000	0.094186
732.000000	0.091880
731.000000	0.089524
730.000000	0.087333
729.000000	0.084965
728.000000	0.082913
727.000000	0.081242
726.000000	0.079723
725.000000	0.078259
724.000000	0.077116
723.000000	0.076072
722.000000	0.074971
721.000000	0.073937
720.000000	0.072964
719.000000	0.071929
718.000000	0.071072
717.000000	0.070176
716.000000	0.069379
715.000000	0.068559
714.000000	0.067666
713.000000	0.066888
712.000000	0.066364
711.000000	0.065755
710.000000	0.065258
709.000000	0.064918
708.000000	0.064483
707.000000	0.064079
706.000000	0.063839
705.000000	0.063571
704.000000	0.063332
703.000000	0.063161
702.000000	0.063025
701.000000	0.062930
700.000000	0.062690
699.000000	0.062611
698.000000	0.062754
697.000000	0.062748
696.000000	0.062562
695.000000	0.062522
694.000000	0.062730
693.000000	0.062778
692.000000	0.062827
691.000000	0.063099
690.000000	0.063229
689.000000	0.063350
688.000000	0.063746
687.000000	0.063925
686.000000	0.064167
685.000000	0.064526
684.000000	0.064807
683.000000	0.065131
682.000000	0.065485
681.000000	0.065706
680.000000	0.066124
679.000000	0.066463
678.000000	0.066779
677.000000	0.067184
676.000000	0.067577
675.000000	0.067723
674.000000	0.068058
673.000000	0.068475
672.000000	0.068788
671.000000	0.069038
670.000000	0.069477
669.000000	0.069727
668.000000	0.069957
667.000000	0.070243
666.000000	0.070562
665.000000	0.070839
664.000000	0.071102
663.000000	0.071220
662.000000	0.071604
661.000000	0.071861
660.000000	0.072082
659.000000	0.072346
658.000000	0.072600
657.000000	0.072510
656.000000	0.072689
655.000000	0.072957
654.000000	0.073179
653.000000	0.073285
652.000000	0.073637
651.000000	0.073679
650.000000	0.073980
649.000000	0.074274
648.000000	0.074548
647.000000	0.074870
646.000000	0.075196
645.000000	0.075319
644.000000	0.075764
643.000000	0.076075
642.000000	0.076294
641.000000	0.076651
640.000000	0.077123
639.000000	0.077145
638.000000	0.077576
637.000000	0.078004
636.000000	0.078328
635.000000	0.078614
634.000000	0.079154
633.000000	0.079345
632.000000	0.079634
631.000000	0.080080
630.000000	0.080371
629.000000	0.080858
628.000000	0.081427
627.000000	0.081426
626.000000	0.082084
625.000000	0.082481
624.000000	0.082877
623.000000	0.083208
622.000000	0.083810
621.000000	0.084226
620.000000	0.084666
619.000000	0.085227
618.000000	0.085713
617.000000	0.086165
616.000000	0.086708
615.000000	0.087018
614.000000	0.087587
613.000000	0.088042
612.000000	0.088592
611.000000	0.089191
610.000000	0.089824
609.000000	0.090130
608.000000	0.090792
607.000000	0.091237
606.000000	0.091751
605.000000	0.092497
604.000000	0.092948
603.000000	0.093178
602.000000	0.093689
601.000000	0.094019
600.000000	0.094418
599.000000	0.094743
598.000000	0.095053
597.000000	0.095536
596.000000	0.095686
595.000000	0.096140
594.000000	0.096650
593.000000	0.097141
592.000000	0.097643
591.000000	0.098270
590.000000	0.098679
589.000000	0.099424
588.000000	0.100008
587.000000	0.100522
586.000000	0.101173
585.000000	0.101906
584.000000	0.102322
583.000000	0.102627
582.000000	0.104330
581.000000	0.104522
580.000000	0.105186
579.000000	0.106057
578.000000	0.106663
577.000000	0.107336
576.000000	0.108197
575.000000	0.109112
574.000000	0.109831
573.000000	0.110719
572.000000	0.111401
571.000000	0.112216
570.000000	0.113104
569.000000	0.113932
568.000000	0.114723
567.000000	0.115806
566.000000	0.116514
565.000000	0.117510
564.000000	0.118512
563.000000	0.119469
562.000000	0.120516
561.000000	0.121428
560.000000	0.122491
559.000000	0.123323
558.000000	0.124470
557.000000	0.125017
556.000000	0.124801
555.000000	0.127924
554.000000	0.128780
553.000000	0.129777
552.000000	0.131014
551.000000	0.132093
550.000000	0.133169
549.000000	0.134352
548.000000	0.135492
547.000000	0.136529
546.000000	0.137772
545.000000	0.138957
544.000000	0.140180
543.000000	0.141459
542.000000	0.142690
541.000000	0.143818
540.000000	0.145145
539.000000	0.146418
538.000000	0.147753
537.000000	0.149038
536.000000	0.150345
535.000000	0.151628
534.000000	0.153208
533.000000	0.154575
532.000000	0.155971
531.000000	0.157396
530.000000	0.158846
529.000000	0.160177
528.000000	0.161726
527.000000	0.163205
526.000000	0.164731
525.000000	0.166355
524.000000	0.167878
523.000000	0.169213
522.000000	0.170788
521.000000	0.172494
520.000000	0.174176
519.000000	0.175904
518.000000	0.177551
517.000000	0.179125
516.000000	0.180920
515.000000	0.182673
514.000000	0.184481
513.000000	0.186348
512.000000	0.188123
511.000000	0.189804
510.000000	0.191604
509.000000	0.193407
508.000000	0.195271
507.000000	0.197151
506.000000	0.198881
505.000000	0.200651
504.000000	0.202575
503.000000	0.204454
502.000000	0.206495
501.000000	0.209201
500.000000	0.211117
499.000000	0.212505
498.000000	0.214677
497.000000	0.216828
496.000000	0.219024
495.000000	0.221225
494.000000	0.223315
493.000000	0.225437
492.000000	0.227611
491.000000	0.229822
490.000000	0.232012
489.000000	0.234115
488.000000	0.236182
487.000000	0.238442
486.000000	0.240787
485.000000	0.243073
484.000000	0.245430
483.000000	0.247878
482.000000	0.250171
481.000000	0.252579
480.000000	0.255218
479.000000	0.257782
478.000000	0.260243
477.000000	0.262777
476.000000	0.265210
475.000000	0.268095
474.000000	0.270691
473.000000	0.273312
472.000000	0.276188
471.000000	0.279072
470.000000	0.281811
469.000000	0.284741
468.000000	0.287846
467.000000	0.290796
466.000000	0.293794
465.000000	0.297055
464.000000	0.300131
463.000000	0.303334
462.000000	0.306686
461.000000	0.310036
460.000000	0.313451
459.000000	0.317004
458.000000	0.320568
457.000000	0.324253
456.000000	0.327957
455.000000	0.331746
454.000000	0.335652
453.000000	0.339749
452.000000	0.343660
451.000000	0.347942
450.000000	0.352221
449.000000	0.356564
448.000000	0.361046
447.000000	0.365665
446.000000	0.370136
445.000000	0.375087
444.000000	0.380099
443.000000	0.385187
442.000000	0.390191
441.000000	0.395637
440.000000	0.401008
439.000000	0.406587
438.000000	0.412218
437.000000	0.418010
436.000000	0.423903
435.000000	0.429980
434.000000	0.435999
433.000000	0.442487
432.000000	0.448901
431.000000	0.455347
430.000000	0.461992
429.000000	0.468926
428.000000	0.475587
427.000000	0.482559
426.000000	0.489740
425.000000	0.497072
424.000000	0.504294
423.000000	0.511885
422.000000	0.519267
421.000000	0.527002
420.000000	0.534717
419.000000	0.542711
418.000000	0.550895
417.000000	0.558978
416.000000	0.566792
415.000000	0.575541
414.000000	0.584365
413.000000	0.592884
412.000000	0.601682
411.000000	0.610842
410.000000	0.619746
409.000000	0.629123
408.000000	0.638608
407.000000	0.648285
406.000000	0.659230
405.000000	0.668017
404.000000	0.677997
403.000000	0.688704
402.000000	0.699037
401.000000	0.709927
400.000000	0.721015
399.000000	0.732297
398.000000	0.743190
397.000000	0.755257
396.000000	0.767090
395.000000	0.779215
394.000000	0.791540
393.000000	0.804439
392.000000	0.816970
391.000000	0.830207
390.000000	0.843745
389.000000	0.857476
388.000000	0.871347
387.000000	0.885510
386.000000	0.899449
385.000000	0.914758
384.000000	0.929794
383.000000	0.945123
382.000000	0.960911
381.000000	0.976886
380.000000	0.992577
379.000000	1.009627
378.000000	1.029013
377.000000	1.046964
376.000000	1.063461
375.000000	1.081144
374.000000	1.098755
373.000000	1.116382
372.000000	1.134739
371.000000	1.153634
370.000000	1.171271
369.000000	1.190748
368.000000	1.210086
367.000000	1.229559
366.000000	1.249194
365.000000	1.268965
364.000000	1.288788
363.000000	1.309751
362.000000	1.330349
361.000000	1.351338
360.000000	1.372874
359.000000	1.393826
358.000000	1.414451
357.000000	1.436845
356.000000	1.459074
355.000000	1.480981
354.000000	1.503361
353.000000	1.526129
352.000000	1.547801
351.000000	1.571355
350.000000	1.594749
349.000000	1.618304
348.000000	1.640980
347.000000	1.663899
346.000000	1.687231
345.000000	1.712629
344.000000	1.736502
343.000000	1.760842
342.000000	1.785446
341.000000	1.809682
340.000000	1.833275
339.000000	1.859941
338.000000	1.885373
337.000000	1.910127
336.000000	1.935574
335.000000	1.961212
334.000000	1.985534
333.000000	2.012882
332.000000	2.040081
331.000000	2.067320
330.000000	2.093117
329.000000	2.118981
328.000000	2.145347
327.000000	2.175195
326.000000	2.202103
325.000000	2.229889
324.000000	2.259955
323.000000	2.286413
322.000000	2.313348
321.000000	2.347882
320.000000	2.378776
319.000000	2.407070
318.000000	2.440262
317.000000	2.480659
316.000000	2.512048
315.000000	2.543408
314.000000	2.583259
313.000000	2.617666
312.000000	2.651331
311.000000	2.688919
310.000000	2.719007
309.000000	2.747191
308.000000	2.791292
307.000000	2.832242
306.000000	2.869922
305.000000	2.907516
304.000000	2.940060
303.000000	2.969250
302.000000	3.016522
301.000000	3.064919
300.000000	3.118966
299.000000	3.162850
298.000000	3.181203
297.000000	3.224903
296.000000	3.293356
295.000000	3.338407
294.000000	3.388804
293.000000	3.452797
292.000000	3.464198
291.000000	3.494116
290.000000	3.588838
289.000000	3.659762
288.000000	3.730904
287.000000	3.812718
286.000000	3.775822
285.000000	3.794096
284.000000	3.970224
283.000000	4.130538
282.000000	4.352534
281.000000	4.452310
280.000000	4.137561
279.000000	4.290714
278.000000	5.165923
277.000000	10.000000
276.000000	10.000000
275.000000	10.000000
274.000000	4.768463
273.000000	10.000000
272.000000	10.000000
271.000000	10.000000
270.000000	10.000000
269.000000	10.000000
268.000000	10.000000
267.000000	10.000000
266.000000	10.000000
265.000000	10.000000
264.000000	10.000000
263.000000	10.000000
262.000000	10.000000
261.000000	10.000000
260.000000	10.000000
259.000000	10.000000
258.000000	10.000000
257.000000	10.000000
256.000000	10.000000
255.000000	10.000000
254.000000	10.000000
253.000000	10.000000
252.000000	10.000000
251.000000	10.000000
250.000000	10.000000
249.000000	10.000000
248.000000	10.000000
247.000000	10.000000
246.000000	10.000000
245.000000	10.000000
244.000000	10.000000
243.000000	10.000000
242.000000	10.000000
241.000000	5.656608
240.000000	10.000000
239.000000	5.057205
238.000000	4.348926
237.000000	4.500855
236.000000	4.622367
235.000000	4.762150
234.000000	4.853702
233.000000	4.822678
232.000000	4.279827
231.000000	5.369175
230.000000	4.930806
229.000000	4.893738
228.000000	5.371626
227.000000	10.000000
226.000000	4.469199
225.000000	5.071658
224.000000	10.000000
223.000000	5.372866
222.000000	5.129744
221.000000	5.372578
220.000000	4.302415
219.000000	4.543070
218.000000	4.361459
217.000000	4.542776
216.000000	4.468814
215.000000	4.233459
214.000000	3.880391
213.000000	4.015016
212.000000	4.071037
211.000000	3.949186
210.000000	3.921835
209.000000	3.864462
208.000000	3.668087
207.000000	3.701918
206.000000	3.721232
205.000000	3.707734
204.000000	3.637266
203.000000	3.600046
202.000000	3.535208
201.000000	3.517887
200.000000	3.465544
